Frequency (Hz)	Level (dB)
10.766602	-66.824921
21.533203	-65.585297
32.299805	-64.768265
43.066406	-62.638363
53.833008	-62.630314
64.599609	-61.637375
75.366211	-61.469173
86.132812	-61.379707
96.899414	-61.932781
107.666016	-61.911587
118.432617	-62.804440
129.199219	-63.580139
139.965820	-64.014130
150.732422	-63.607632
161.499023	-62.215202
172.265625	-60.399265
183.032227	-58.161205
193.798828	-55.410576
204.565430	-52.512592
215.332031	-50.756634
226.098633	-51.312920
236.865234	-54.141949
247.631836	-56.879196
258.398438	-59.899387
269.165039	-61.948227
279.931641	-63.647293
290.698242	-64.913399
301.464844	-65.960236
312.231445	-66.600487
322.998047	-67.039398
333.764648	-66.509750
344.531250	-65.602280
355.297852	-64.276054
366.064453	-63.065163
376.831055	-61.626991
387.597656	-59.712395
398.364258	-57.411690
409.130859	-54.245121
419.897461	-51.322762
430.664062	-50.664165
441.430664	-52.827103
452.197266	-56.108284
462.963867	-58.672153
473.730469	-60.644043
484.497070	-62.158775
495.263672	-63.676880
506.030273	-64.929871
516.796875	-65.434517
527.563477	-65.905830
538.330078	-66.037628
549.096680	-66.126373
559.863281	-65.789009
570.629883	-64.541962
581.396484	-63.101902
592.163086	-61.321461
602.929688	-59.142761
613.696289	-56.151958
624.462891	-52.597313
635.229492	-49.695438
645.996094	-49.943062
656.762695	-53.333538
667.529297	-56.794518
678.295898	-59.537148
689.062500	-61.643097
699.829102	-63.243862
710.595703	-64.417000
721.362305	-64.925591
732.128906	-65.494217
742.895508	-66.070160
753.662109	-65.997116
764.428711	-65.569923
775.195312	-64.987152
785.961914	-64.120911
796.728516	-62.647499
807.495117	-60.603367
818.261719	-58.360397
829.028320	-55.263683
839.794922	-51.252804
850.561523	-49.073345
861.328125	-50.573109
872.094727	-54.403908
882.861328	-57.794243
893.627930	-60.147606
904.394531	-61.724880
915.161133	-62.840240
925.927734	-64.150581
936.694336	-64.803513
947.460938	-65.209038
958.227539	-65.084854
968.994141	-64.746071
979.760742	-64.294884
990.527344	-63.555111
1001.293945	-62.771229
1012.060547	-61.270275
1022.827148	-59.198654
1033.593750	-56.873257
1044.360352	-53.300442
1055.126953	-49.668285
1065.893555	-48.692867
1076.660156	-51.204075
1087.426758	-55.110271
1098.193359	-58.164501
1108.959961	-60.198723
1119.726562	-62.001091
1130.493164	-62.941902
1141.259766	-63.606968
1152.026367	-64.282806
1162.792969	-64.472488
1173.559570	-64.494087
1184.326172	-64.544380
1195.092773	-63.567047
1205.859375	-62.696182
1216.625977	-61.519726
1227.392578	-60.280140
1238.159180	-58.140369
1248.925781	-55.206692
1259.692383	-51.224487
1270.458984	-48.401169
1281.225586	-48.831608
1291.992188	-52.116631
1302.758789	-55.727077
1313.525391	-58.010628
1324.291992	-59.630379
1335.058594	-60.811951
1345.825195	-61.997612
1356.591797	-62.933670
1367.358398	-63.068928
1378.125000	-63.250214
1388.891602	-62.864250
1399.658203	-62.302200
1410.424805	-61.721035
1421.191406	-60.994411
1431.958008	-59.563454
1442.724609	-58.007603
1453.491211	-55.910053
1464.257812	-52.386166
1475.024414	-48.000172
1485.791016	-46.437916
1496.557617	-48.493721
1507.324219	-52.453041
1518.090820	-55.689800
1528.857422	-57.658390
1539.624023	-59.015438
1550.390625	-59.981457
1561.157227	-60.943420
1571.923828	-61.777111
1582.690430	-61.913319
1593.457031	-61.959225
1604.223633	-61.603870
1614.990234	-61.325130
1625.756836	-60.571854
1636.523438	-58.998394
1647.290039	-57.464874
1658.056641	-56.059814
1668.823242	-53.488800
1679.589844	-49.695763
1690.356445	-46.143391
1701.123047	-45.814953
1711.889648	-48.904537
1722.656250	-52.504635
1733.422852	-55.122555
1744.189453	-56.940750
1754.956055	-58.338123
1765.722656	-59.255718
1776.489258	-59.678783
1787.255859	-60.254513
1798.022461	-60.483662
1808.789062	-60.404942
1819.555664	-60.146847
1830.322266	-59.230045
1841.088867	-58.514023
1851.855469	-57.517849
1862.622070	-55.813663
1873.388672	-53.575573
1884.155273	-50.424843
1894.921875	-46.705811
1905.688477	-44.304970
1916.455078	-45.419556
1927.221680	-48.998356
1937.988281	-52.316219
1948.754883	-54.351173
1959.521484	-55.761612
1970.288086	-56.914974
1981.054688	-57.746994
1991.821289	-58.246822
2002.587891	-58.696865
2013.354492	-58.539810
2024.121094	-58.344067
2034.887695	-58.242176
2045.654297	-57.356655
2056.420898	-56.283043
2067.187500	-54.984650
2077.954102	-53.338753
2088.720703	-51.308563
2099.487305	-47.977825
2110.253906	-44.735081
2121.020508	-43.692535
2131.787109	-45.652195
2142.553711	-49.008896
2153.320312	-51.698330
2164.086914	-53.557983
2174.853516	-55.079086
2185.620117	-56.057987
2196.386719	-56.645561
2207.153320	-57.097263
2217.919922	-57.300415
2228.686523	-57.425083
2239.453125	-57.160393
2250.219727	-56.606743
2260.986328	-56.173157
2271.752930	-55.303055
2282.519531	-53.427116
2293.286133	-51.746277
2304.052734	-49.295269
2314.819336	-45.997356
2325.585938	-43.598118
2336.352539	-43.524418
2347.119141	-46.011433
2357.885742	-48.909801
2368.652344	-51.322613
2379.418945	-52.807293
2390.185547	-54.175541
2400.952148	-54.975155
2411.718750	-55.557983
2422.485352	-56.153709
2433.251953	-55.970551
2444.018555	-55.998280
2454.785156	-55.603786
2465.551758	-54.817944
2476.318359	-53.856728
2487.084961	-52.878757
2497.851562	-51.336964
2508.618164	-49.331371
2519.384766	-46.932419
2530.151367	-44.398140
2540.917969	-42.338768
2551.684570	-42.777710
2562.451172	-45.236946
2573.217773	-47.608311
2583.984375	-49.952667
2594.750977	-51.679314
2605.517578	-52.657967
2616.284180	-53.658909
2627.050781	-53.808804
2637.817383	-54.084904
2648.583984	-54.282509
2659.350586	-53.913780
2670.117188	-53.979946
2680.883789	-53.399620
2691.650391	-52.279362
2702.416992	-50.870762
2713.183594	-49.472359
2723.950195	-47.513962
2734.716797	-45.112305
2745.483398	-42.262367
2756.250000	-41.107513
2767.016602	-42.347214
2777.783203	-44.924847
2788.549805	-47.335587
2799.316406	-48.990963
2810.083008	-50.507488
2820.849609	-51.683823
2831.616211	-52.167072
2842.382812	-52.850895
2853.149414	-53.374905
2863.916016	-53.172894
2874.682617	-52.668648
2885.449219	-52.211506
2896.215820	-51.813030
2906.982422	-50.768284
2917.749023	-49.726162
2928.515625	-47.718269
2939.282227	-45.505054
2950.048828	-43.290405
2960.815430	-41.220566
2971.582031	-40.866447
2982.348633	-42.415600
2993.115234	-44.280006
3003.881836	-46.488293
3014.648438	-48.366123
3025.415039	-49.643406
3036.181641	-50.441315
3046.948242	-51.166126
3057.714844	-51.695221
3068.481445	-51.966545
3079.248047	-52.480160
3090.014648	-52.092102
3100.781250	-51.343571
3111.547852	-50.569031
3122.314453	-49.734520
3133.081055	-48.354794
3143.847656	-46.551605
3154.614258	-44.496803
3165.380859	-42.730427
3176.147461	-40.893429
3186.914062	-40.874451
3197.680664	-42.699898
3208.447266	-44.890617
3219.213867	-46.681812
3229.980469	-48.258038
3240.747070	-49.419666
3251.513672	-50.365791
3262.280273	-51.018555
3273.046875	-51.387550
3283.813477	-51.622910
3294.580078	-51.349575
3305.346680	-51.258938
3316.113281	-51.011818
3326.879883	-50.214523
3337.646484	-49.200142
3348.413086	-47.965748
3359.179688	-46.396179
3369.946289	-44.690647
3380.712891	-42.326687
3391.479492	-41.206612
3402.246094	-41.959686
3413.012695	-43.826214
3423.779297	-45.551105
3434.545898	-47.420254
3445.312500	-48.806206
3456.079102	-49.693634
3466.845703	-50.508121
3477.612305	-51.302807
3488.378906	-51.632740
3499.145508	-51.639397
3509.912109	-51.894753
3520.678711	-51.532429
3531.445312	-51.109978
3542.211914	-50.442680
3552.978516	-49.413826
3563.745117	-48.144650
3574.511719	-46.694138
3585.278320	-44.696369
3596.044922	-43.047012
3606.811523	-42.281296
3617.578125	-42.590744
3628.344727	-44.564072
3639.111328	-46.399372
3649.877930	-48.109894
3660.644531	-49.441914
3671.411133	-50.782581
3682.177734	-51.491322
3692.944336	-51.856472
3703.710938	-52.490177
3714.477539	-52.778809
3725.244141	-52.635448
3736.010742	-52.183575
3746.777344	-51.706127
3757.543945	-50.999645
3768.310547	-50.038849
3779.077148	-48.774681
3789.843750	-47.447865
3800.610352	-45.569641
3811.376953	-44.440697
3822.143555	-44.062031
3832.910156	-44.721397
3843.676758	-46.034153
3854.443359	-48.106339
3865.209961	-49.639366
3875.976562	-50.733723
3886.743164	-51.927277
3897.509766	-53.030437
3908.276367	-53.239246
3919.042969	-53.540367
3929.809570	-53.674545
3940.576172	-53.794029
3951.342773	-53.412048
3962.109375	-52.592812
3972.875977	-51.834267
3983.642578	-50.812450
3994.409180	-49.704945
4005.175781	-48.258263
4015.942383	-46.744759
4026.708984	-45.527203
4037.475586	-45.155029
4048.242188	-46.025654
4059.008789	-47.681770
4069.775391	-49.249084
4080.541992	-50.649292
4091.308594	-51.761280
4102.075195	-52.672901
4112.841797	-53.294849
4123.608398	-53.933094
4134.375000	-53.999550
4145.141602	-54.217632
4155.908203	-54.214058
4166.674805	-53.823219
4177.441406	-53.134956
4188.208008	-52.659935
4198.974609	-51.737411
4209.741211	-50.299129
4220.507812	-48.663239
4231.274414	-47.428066
4242.041016	-46.573364
4252.807617	-46.375805
4263.574219	-47.245319
4274.340820	-48.766228
4285.107422	-50.515156
4295.874023	-51.869320
4306.640625	-52.892647
4317.407227	-53.450996
4328.173828	-54.212955
4338.940430	-54.922817
4349.707031	-55.166149
4360.473633	-55.237850
4371.240234	-54.877487
4382.006836	-54.322319
4392.773438	-53.813805
4403.540039	-53.087845
4414.306641	-52.255421
4425.073242	-50.998352
4435.839844	-49.596581
4446.606445	-48.072025
4457.373047	-47.462627
4468.139648	-47.792645
4478.906250	-48.702457
4489.672852	-50.052280
4500.439453	-51.357559
4511.206055	-52.509872
4521.972656	-53.593052
4532.739258	-54.200954
4543.505859	-54.848511
4554.272461	-55.158943
4565.039062	-55.128727
4575.805664	-55.318329
4586.572266	-55.029770
4597.338867	-54.650158
4608.105469	-54.130821
4618.872070	-53.507370
4629.638672	-52.704865
4640.405273	-51.173244
4651.171875	-49.721081
4661.938477	-48.555836
4672.705078	-47.898716
4683.471680	-47.816334
4694.238281	-48.967655
4705.004883	-50.549881
4715.771484	-51.977520
4726.538086	-52.927227
4737.304688	-54.067825
4748.071289	-54.692001
4758.837891	-55.293949
4769.604492	-55.731613
4780.371094	-55.948753
4791.137695	-55.831352
4801.904297	-55.833988
4812.670898	-55.215351
4823.437500	-54.302322
4834.204102	-53.391415
4844.970703	-52.478012
4855.737305	-51.488373
4866.503906	-50.410542
4877.270508	-48.985176
4888.037109	-48.493244
4898.803711	-48.866055
4909.570312	-49.969173
4920.336914	-51.208164
4931.103516	-52.481018
4941.870117	-53.764690
4952.636719	-54.551918
4963.403320	-55.231915
4974.169922	-55.683006
4984.936523	-56.113777
4995.703125	-56.201874
5006.469727	-55.924080
5017.236328	-55.880989
5028.002930	-56.110455
5038.769531	-55.791801
5049.536133	-54.738731
5060.302734	-53.526024
5071.069336	-52.831318
5081.835938	-51.898006
5092.602539	-51.016457
5103.369141	-50.986340
5114.135742	-51.812515
5124.902344	-52.958466
5135.668945	-54.041710
5146.435547	-55.542824
5157.202148	-56.834423
5167.968750	-57.651596
5178.735352	-58.583088
5189.501953	-59.710670
5200.268555	-60.568451
5211.035156	-61.057137
5221.801758	-61.248749
5232.568359	-60.985023
5243.334961	-61.244144
5254.101562	-61.416473
5264.868164	-61.104752
5275.634766	-60.725418
5286.401367	-60.208656
5297.167969	-59.663464
5307.934570	-59.853279
5318.701172	-60.483669
5329.467773	-61.601757
5340.234375	-63.478970
5351.000977	-65.282639
5361.767578	-67.156273
5372.534180	-68.903595
5383.300781	-70.420631
5394.067383	-72.065193
5404.833984	-73.590439
5415.600586	-74.698372
5426.367188	-75.779984
5437.133789	-76.652077
5447.900391	-77.564354
5458.666992	-78.066139
5469.433594	-78.040039
5480.200195	-77.644890
5490.966797	-76.956635
5501.733398	-76.636650
